,wavelength,transmission
0,5450.0,0.0008500000000000001
1,5460.0,0.00165
2,5470.0,0.0031
3,5480.0,0.005600000000000001
4,5490.0,0.009649999999999999
5,5500.0,0.0159
6,5510.0,0.025099999999999997
7,5520.0,0.03785
8,5530.0,0.05474999999999999
9,5540.0,0.0761
10,5550.0,0.102
11,5560.0,0.13205
12,5570.0,0.1663
13,5580.0,0.20379999999999998
14,5590.0,0.2433
15,5600.0,0.28495000000000004
16,5610.0,0.32675
17,5620.0,0.36705
18,5630.0,0.40775
19,5640.0,0.44630000000000003
20,5650.0,0.48265
21,5660.0,0.51695
22,5670.0,0.5486
23,5680.0,0.57835
24,5690.0,0.60545
25,5700.0,0.62985
26,5710.0,0.6536
27,5720.0,0.67285
28,5730.0,0.6918500000000001
29,5740.0,0.70825
30,5750.0,0.72345
31,5760.0,0.7368000000000001
32,5770.0,0.7487
33,5780.0,0.75925
34,5790.0,0.7691
35,5800.0,0.77705
36,5810.0,0.78475
37,5820.0,0.7916
38,5830.0,0.7972499999999999
39,5840.0,0.80215
40,5850.0,0.80695
41,5860.0,0.81035
42,5870.0,0.8140999999999999
43,5880.0,0.8172
44,5890.0,0.8190999999999999
45,5900.0,0.82195
46,5910.0,0.8233
47,5920.0,0.8249
48,5930.0,0.8253
49,5940.0,0.8266
50,5950.0,0.82685
51,5960.0,0.8278
52,5970.0,0.8272499999999999
53,5980.0,0.8273
54,5990.0,0.8273
55,6000.0,0.82695
56,6010.0,0.8256
57,6020.0,0.8261499999999999
58,6030.0,0.8244499999999999
59,6040.0,0.8233499999999999
60,6050.0,0.82195
61,6060.0,0.8215
62,6070.0,0.8206
63,6080.0,0.81855
64,6090.0,0.81745
65,6100.0,0.8155
66,6110.0,0.8137000000000001
67,6120.0,0.8120499999999999
68,6130.0,0.81045
69,6140.0,0.8079500000000001
70,6150.0,0.8061
71,6160.0,0.8034
72,6170.0,0.8011499999999999
73,6180.0,0.79905
74,6190.0,0.7972
75,6200.0,0.79375
76,6210.0,0.7918999999999999
77,6220.0,0.78935
78,6230.0,0.78595
79,6240.0,0.78385
80,6250.0,0.7811
81,6260.0,0.77845
82,6270.0,0.77575
83,6280.0,0.77305
84,6290.0,0.7701
85,6300.0,0.76705
86,6310.0,0.7631999999999999
87,6320.0,0.7605
88,6330.0,0.7569499999999999
89,6340.0,0.7539
90,6350.0,0.7512000000000001
91,6360.0,0.7475499999999999
92,6370.0,0.7444
93,6380.0,0.7415
94,6390.0,0.73835
95,6400.0,0.73465
96,6410.0,0.7311
97,6420.0,0.72765
98,6430.0,0.7242000000000001
99,6440.0,0.72065
100,6450.0,0.7171500000000001
101,6460.0,0.71375
102,6470.0,0.7106999999999999
103,6480.0,0.7065
104,6490.0,0.70415
105,6500.0,0.6992
106,6510.0,0.69545
107,6520.0,0.69285
108,6530.0,0.68965
109,6540.0,0.68515
110,6550.0,0.68135
111,6560.0,0.6777500000000001
112,6570.0,0.67375
113,6580.0,0.6706
114,6590.0,0.6667000000000001
115,6600.0,0.6625
116,6610.0,0.6589499999999999
117,6620.0,0.65495
118,6630.0,0.6517499999999999
119,6640.0,0.6468
120,6650.0,0.6430500000000001
121,6660.0,0.6399
122,6670.0,0.6356499999999999
123,6680.0,0.6314500000000001
124,6690.0,0.6285000000000001
125,6700.0,0.6236
126,6710.0,0.62
127,6720.0,0.61565
128,6730.0,0.61155
129,6740.0,0.60735
130,6750.0,0.60305
131,6760.0,0.59915
132,6770.0,0.5947
133,6780.0,0.58915
134,6790.0,0.586
135,6800.0,0.5808
136,6810.0,0.5770000000000001
137,6820.0,0.57195
138,6830.0,0.5676
139,6840.0,0.5619
140,6850.0,0.5579500000000001
141,6860.0,0.5537
142,6870.0,0.5485
143,6880.0,0.5436
144,6890.0,0.5397
145,6900.0,0.5338
146,6910.0,0.52925
147,6920.0,0.5246999999999999
148,6930.0,0.52055
149,6940.0,0.51505
150,6950.0,0.51085
151,6960.0,0.50595
152,6970.0,0.50075
153,6980.0,0.4964
154,6990.0,0.49215000000000003
155,7000.0,0.48685
156,7010.0,0.48275
157,7020.0,0.47715
158,7030.0,0.4732
159,7040.0,0.4682
160,7050.0,0.4631
161,7060.0,0.4587
162,7070.0,0.45425
163,7080.0,0.4497
164,7090.0,0.44484999999999997
165,7100.0,0.43895
166,7110.0,0.43524999999999997
167,7120.0,0.43119999999999997
168,7130.0,0.42579999999999996
169,7140.0,0.42174999999999996
170,7150.0,0.4171
171,7160.0,0.41200000000000003
172,7170.0,0.4075
173,7180.0,0.4031
174,7190.0,0.39905
175,7200.0,0.3942
176,7210.0,0.38880000000000003
177,7220.0,0.38505
178,7230.0,0.37975000000000003
179,7240.0,0.37625
180,7250.0,0.37225
181,7260.0,0.36825
182,7270.0,0.3628
183,7280.0,0.359
184,7290.0,0.35405000000000003
185,7300.0,0.35015
186,7310.0,0.3456
187,7320.0,0.3411
188,7330.0,0.33695
189,7340.0,0.3335
190,7350.0,0.3285
191,7360.0,0.3245
192,7370.0,0.32159999999999994
193,7380.0,0.31684999999999997
194,7390.0,0.31215
195,7400.0,0.3078
196,7410.0,0.304
197,7420.0,0.29985
198,7430.0,0.29515
199,7440.0,0.2918
200,7450.0,0.2883
201,7460.0,0.28315
202,7470.0,0.27925
203,7480.0,0.27625
204,7490.0,0.27215
205,7500.0,0.26855
206,7510.0,0.2635
207,7520.0,0.2601
208,7530.0,0.2566
209,7540.0,0.2527
210,7550.0,0.24914999999999998
211,7560.0,0.2452
212,7570.0,0.2418
213,7580.0,0.2375
214,7590.0,0.23465
215,7600.0,0.23024999999999998
216,7610.0,0.2261
217,7620.0,0.22245
218,7630.0,0.21985
219,7640.0,0.21645
220,7650.0,0.21315
221,7660.0,0.2096
222,7670.0,0.20620000000000002
223,7680.0,0.2029
224,7690.0,0.19940000000000002
225,7700.0,0.1962
226,7710.0,0.19225
227,7720.0,0.1891
228,7730.0,0.1863
229,7740.0,0.1832
230,7750.0,0.17915
231,7760.0,0.177
232,7770.0,0.17370000000000002
233,7780.0,0.17059999999999997
234,7790.0,0.16725
235,7800.0,0.16445
236,7810.0,0.1623
237,7820.0,0.15865
238,7830.0,0.15615
239,7840.0,0.15285
240,7850.0,0.15055
241,7860.0,0.1474
242,7870.0,0.14525
243,7880.0,0.14279999999999998
244,7890.0,0.14045
245,7900.0,0.13675
246,7910.0,0.13425
247,7920.0,0.1318
248,7930.0,0.1294
249,7940.0,0.1267
250,7950.0,0.1245
251,7960.0,0.12244999999999999
252,7970.0,0.11964999999999999
253,7980.0,0.11715
254,7990.0,0.11495
255,8000.0,0.11320000000000001
256,8010.0,0.11115
257,8020.0,0.1092
258,8030.0,0.1067
259,8040.0,0.1042
260,8050.0,0.10275000000000001
261,8060.0,0.09974999999999999
262,8070.0,0.09824999999999999
263,8080.0,0.09645
264,8090.0,0.09505000000000001
265,8100.0,0.09205
266,8110.0,0.09025
267,8120.0,0.0885
268,8130.0,0.0872
269,8140.0,0.08525
270,8150.0,0.08380000000000001
271,8160.0,0.0814
272,8170.0,0.0802
273,8180.0,0.0786
274,8190.0,0.0765
275,8200.0,0.07535
276,8210.0,0.07365000000000001
277,8220.0,0.0719
278,8230.0,0.07095
279,8240.0,0.0695
280,8250.0,0.06745
281,8260.0,0.0659
282,8270.0,0.06445000000000001
283,8280.0,0.06225
284,8290.0,0.06155
285,8300.0,0.06075
286,8310.0,0.0592
287,8320.0,0.057800000000000004
288,8330.0,0.05625
289,8340.0,0.05525
290,8350.0,0.0537
291,8360.0,0.0528
292,8370.0,0.05165
293,8380.0,0.0509
294,8390.0,0.049749999999999996
295,8400.0,0.0483
296,8410.0,0.046950000000000006
297,8420.0,0.046
298,8430.0,0.0449
299,8440.0,0.044050000000000006
300,8450.0,0.042800000000000005
301,8460.0,0.042199999999999994
302,8470.0,0.0404
303,8480.0,0.039900000000000005
304,8490.0,0.0395
305,8500.0,0.038849999999999996
306,8510.0,0.037599999999999995
307,8520.0,0.03665
308,8530.0,0.0356
309,8540.0,0.03515
310,8550.0,0.03395
311,8560.0,0.03295
312,8570.0,0.032549999999999996
313,8580.0,0.032
314,8590.0,0.03115
315,8600.0,0.03015
316,8610.0,0.0316
317,8620.0,0.03165
318,8630.0,0.0274
319,8640.0,0.029449999999999997
320,8650.0,0.028399999999999998
321,8660.0,0.02765
322,8670.0,0.0274
323,8680.0,0.025750000000000002
324,8690.0,0.028300000000000002
325,8700.0,0.025099999999999997
326,8710.0,0.0254
327,8720.0,0.0235
328,8730.0,0.0235
329,8740.0,0.023700000000000002
330,8750.0,0.0232
331,8760.0,0.02255
332,8770.0,0.0209
333,8780.0,0.0206
334,8790.0,0.02085
335,8800.0,0.0187
336,8810.0,0.0191
337,8820.0,0.0192
338,8830.0,0.019299999999999998
339,8840.0,0.01805
340,8850.0,0.01825
341,8860.0,0.0173
342,8870.0,0.01725
343,8880.0,0.0155
344,8890.0,0.01605
345,8900.0,0.0151
346,8910.0,0.014950000000000001
347,8920.0,0.0146
348,8930.0,0.0151
349,8940.0,0.013600000000000001
350,8950.0,0.0141
351,8960.0,0.0139
352,8970.0,0.01325
353,8980.0,0.01605
354,8990.0,0.01365
355,9000.0,0.0132
356,9010.0,0.0129
357,9020.0,0.0129
358,9030.0,0.0126
359,9040.0,0.01155
360,9050.0,0.01125
361,9060.0,0.0106
362,9070.0,0.01035
363,9080.0,0.01045
364,9090.0,0.0105
365,9100.0,0.00945
366,9110.0,0.0092
367,9120.0,0.00855
368,9130.0,0.0083
369,9140.0,0.0089
370,9150.0,0.00835
371,9160.0,0.00865
372,9170.0,0.008199999999999999
373,9180.0,0.00885
374,9190.0,0.0074
375,9200.0,0.00825
376,9210.0,0.007850000000000001
377,9220.0,0.0045000000000000005
378,9230.0,0.0078000000000000005
379,9240.0,0.0075
380,9250.0,0.00755
381,9260.0,0.006
382,9270.0,0.00565
383,9280.0,0.006500000000000001
384,9290.0,0.00745
385,9300.0,0.0063
386,9310.0,0.0066500000000000005
387,9320.0,0.0073
388,9330.0,0.00435
389,9340.0,0.005
390,9350.0,0.0053
391,9360.0,0.00485
392,9370.0,0.00645
393,9380.0,0.0046
394,9390.0,0.00625
395,9400.0,0.00485
396,9410.0,0.005600000000000001
397,9420.0,0.0051
398,9430.0,0.00605
399,9440.0,0.004050000000000001
400,9450.0,0.0085
401,9460.0,0.0042
402,9470.0,0.0053
403,9480.0,0.0037
404,9490.0,0.003
405,9500.0,0.0034999999999999996
406,9510.0,0.005
407,9520.0,0.00385
408,9530.0,0.0043
409,9540.0,0.0023
410,9550.0,0.0028000000000000004
411,9560.0,0.0035499999999999998
412,9570.0,0.0037
413,9580.0,0.0017000000000000001
414,9590.0,0.0031
415,9600.0,0.0028499999999999997
416,9610.0,0.0032
417,9620.0,0.00385
418,9630.0,0.0018
419,9640.0,0.0031
420,9650.0,0.0040999999999999995
421,9660.0,0.0019500000000000001
422,9670.0,0.0031
423,9680.0,0.00295
424,9690.0,0.00315
425,9700.0,0.00365
426,9710.0,0.00365
427,9720.0,0.00255
428,9730.0,0.00255
429,9740.0,0.00335
430,9750.0,0.0033
431,9760.0,0.0031
432,9770.0,0.0028499999999999997
433,9780.0,0.0020499999999999997
434,9790.0,0.0018
435,9800.0,0.00065
436,9810.0,0.0019
437,9820.0,0.0028499999999999997
438,9830.0,0.0012
439,9840.0,0.0028499999999999997
440,9850.0,0.0008500000000000001
441,9860.0,0.0022
442,9870.0,0.00165
443,9880.0,0.00245
444,9890.0,0.00245
445,9900.0,0.0016
446,9910.0,0.00125
447,9920.0,0.0028000000000000004
448,9930.0,0.0022
449,9940.0,0.00295
450,9950.0,0.0015
451,9960.0,0.0029
452,9970.0,0.0025
453,9980.0,0.00095
454,9990.0,0.0012
455,10000.0,0.00055
456,10010.0,0.0020499999999999997
457,10020.0,0.0011
458,10030.0,0.0008
459,10040.0,0.0011
460,10050.0,0.0021
461,10060.0,0.00135
462,10070.0,0.0019
463,10080.0,0.00105
464,10090.0,0.0017499999999999998
465,10100.0,0.00165
466,10110.0,0.00155
467,10120.0,0.0018
468,10130.0,0.0017499999999999998
469,10140.0,0.0013
470,10150.0,0.0012
471,10160.0,0.0024
472,10170.0,0.0018
473,10180.0,0.00105
474,10190.0,0.00215
475,10200.0,0.0019
476,10210.0,0.0007000000000000001
477,10220.0,0.002
478,10230.0,0.00265
